ENVI
description = {
File Imported into ENVI}
file type = ENVI
sensor type = FENIX1K , Lumo - Recorder v2019-535
acquisition date = DATE(yyyy-mm-dd): 2020-10-01
Start Time = UTC TIME: 07:20:26
Stop Time = UTC TIME: 07:20:31
samples = 1024
bands = 422
lines = 1
errors = {none}
interleave = bil
data type = 4
header offset = 0
byte order = 0
x start = 0
y start = 0
default bands = {83, 111, 38}
himg = {1, 1024}
vimg = {1, 422}
hroi = {1, 1024}
vroi = {1, 422}
fps = 20.00
fps_qpf = 20.11
tint1 = 40.000000
binning = {4, 2}
trigger mode1 = External
himg1 = {1, 1024}
vimg1 = {1, 176}
fodis = {0, 0}
sensorid = 360008
acquisitionwindow1 left = 16
acquisitionwindow1 top = 664
fps2 = 20.00
tint2 = 7.499200
binning2 = {1, 1}
trigger mode2 = External
himg2 = {1, 1024}
vimg2 = {177, 422}
fodis2 = {0, 0}
sensorid2 = 360008
acquisitionwindow2 left = 0
acquisitionwindow2 top = 4
calibration pack = C:/Users/Public/Documents/Specim/360008_20200930_calpack.scp
VNIR temperature = 33.81
SWIR temperature = 149.00
Scb temperature channel1 = 33.67
Scb temperature channel2 = 21.76
Scb temperature channel3 = 24.16
Scb temperature channel4  = 22.26
temperature = {
33.81,
149.00,
33.67,
21.76,
24.16,
22.26
}
wavelength = {
379.17,
382.53,
385.88,
389.24,
392.59,
395.95,
399.31,
402.68,
406.04,
409.4,
412.77,
416.14,
419.51,
422.88,
426.25,
429.63,
433,
436.38,
439.76,
443.14,
446.52,
449.9,
453.28,
456.67,
460.06,
463.44,
466.83,
470.22,
473.61,
477.01,
480.4,
483.79,
487.19,
490.59,
493.99,
497.39,
500.79,
504.19,
507.59,
511,
514.4,
517.81,
521.21,
524.62,
528.03,
531.44,
534.85,
538.26,
541.68,
545.09,
548.51,
551.92,
555.34,
558.75,
562.17,
565.59,
569.01,
572.43,
575.85,
579.27,
582.7,
586.12,
589.54,
592.97,
596.39,
599.82,
603.25,
606.67,
610.1,
613.53,
616.96,
620.39,
623.82,
627.25,
630.68,
634.11,
637.55,
640.98,
644.41,
647.85,
651.28,
654.71,
658.15,
661.58,
665.02,
668.45,
671.89,
675.33,
678.76,
682.2,
685.64,
689.08,
692.51,
695.95,
699.39,
702.83,
706.27,
709.7,
713.14,
716.58,
720.02,
723.46,
726.9,
730.34,
733.78,
737.22,
740.66,
744.1,
747.53,
750.97,
754.41,
757.85,
761.29,
764.73,
768.17,
771.61,
775.04,
778.48,
781.92,
785.36,
788.8,
792.23,
795.67,
799.11,
802.54,
805.98,
809.42,
812.85,
816.29,
819.72,
823.16,
826.59,
830.02,
833.46,
836.89,
840.32,
843.76,
847.19,
850.62,
854.05,
857.48,
860.91,
864.34,
867.76,
871.19,
874.62,
878.05,
881.47,
884.9,
888.32,
891.74,
895.17,
898.59,
902.01,
905.43,
908.85,
912.27,
915.69,
919.11,
922.52,
925.94,
929.36,
932.77,
936.18,
939.6,
943.01,
946.42,
949.83,
953.24,
956.64,
960.05,
963.45,
966.86,
970.26,
973.66,
977.07,
980.81,
987.14,
993.46,
999.78,
1006.11,
1012.43,
1018.75,
1025.07,
1031.39,
1037.71,
1044.02,
1050.34,
1056.66,
1062.97,
1069.29,
1075.6,
1081.92,
1088.23,
1094.54,
1100.85,
1107.16,
1113.47,
1119.78,
1126.09,
1132.4,
1138.7,
1145.01,
1151.32,
1157.62,
1163.92,
1170.23,
1176.53,
1182.83,
1189.13,
1195.43,
1201.73,
1208.03,
1214.33,
1220.63,
1226.92,
1233.22,
1239.51,
1245.8,
1252.1,
1258.39,
1264.68,
1270.97,
1277.26,
1283.55,
1289.84,
1296.13,
1302.41,
1308.7,
1314.98,
1321.27,
1327.55,
1333.83,
1340.11,
1346.39,
1352.67,
1358.95,
1365.23,
1371.51,
1377.78,
1384.06,
1390.33,
1396.61,
1402.88,
1409.15,
1415.42,
1421.69,
1427.96,
1434.23,
1440.5,
1446.77,
1453.03,
1459.3,
1465.56,
1471.82,
1478.09,
1484.35,
1490.61,
1496.87,
1503.13,
1509.38,
1515.64,
1521.9,
1528.15,
1534.4,
1540.66,
1546.91,
1553.16,
1559.41,
1565.66,
1571.91,
1578.15,
1584.4,
1590.65,
1596.89,
1603.13,
1609.38,
1615.62,
1621.86,
1628.1,
1634.34,
1640.57,
1646.81,
1653.05,
1659.28,
1665.51,
1671.75,
1677.98,
1684.21,
1690.44,
1696.67,
1702.89,
1709.12,
1715.35,
1721.57,
1727.79,
1734.02,
1740.24,
1746.46,
1752.68,
1758.89,
1765.11,
1771.33,
1777.54,
1783.76,
1789.97,
1796.18,
1802.39,
1808.6,
1814.81,
1821.02,
1827.22,
1833.43,
1839.63,
1845.84,
1852.04,
1858.24,
1864.44,
1870.64,
1876.84,
1883.03,
1889.23,
1895.42,
1901.62,
1907.81,
1914,
1920.19,
1926.38,
1932.57,
1938.75,
1944.94,
1951.12,
1957.31,
1963.49,
1969.67,
1975.85,
1982.03,
1988.21,
1994.38,
2000.56,
2006.73,
2012.9,
2019.07,
2025.25,
2031.41,
2037.58,
2043.75,
2049.92,
2056.08,
2062.24,
2068.41,
2074.57,
2080.73,
2086.88,
2093.04,
2099.2,
2105.35,
2111.51,
2117.66,
2123.81,
2129.96,
2136.11,
2142.26,
2148.4,
2154.55,
2160.69,
2166.84,
2172.98,
2179.12,
2185.26,
2191.39,
2197.53,
2203.67,
2209.8,
2215.93,
2222.06,
2228.19,
2234.32,
2240.45,
2246.58,
2252.7,
2258.82,
2264.95,
2271.07,
2277.19,
2283.31,
2289.42,
2295.54,
2301.65,
2307.77,
2313.88,
2319.99,
2326.1,
2332.21,
2338.31,
2344.42,
2350.52,
2356.63,
2362.73,
2368.83,
2374.93,
2381.02,
2387.12,
2393.21,
2399.31,
2405.4,
2411.49,
2417.58,
2423.67,
2429.75,
2435.84,
2441.92,
2448,
2454.09,
2460.16,
2466.24,
2472.32,
2478.4,
2484.47,
2490.54,
2496.61,
2502.68
}
fwhm = {
3.35,
3.35,
3.35,
3.36,
3.36,
3.36,
3.36,
3.36,
3.36,
3.37,
3.37,
3.37,
3.37,
3.37,
3.37,
3.37,
3.38,
3.38,
3.38,
3.38,
3.38,
3.38,
3.38,
3.39,
3.39,
3.39,
3.39,
3.39,
3.39,
3.39,
3.39,
3.4,
3.4,
3.4,
3.4,
3.4,
3.4,
3.4,
3.4,
3.4,
3.41,
3.41,
3.41,
3.41,
3.41,
3.41,
3.41,
3.41,
3.41,
3.41,
3.41,
3.42,
3.42,
3.42,
3.42,
3.42,
3.42,
3.42,
3.42,
3.42,
3.42,
3.42,
3.42,
3.42,
3.43,
3.43,
3.43,
3.43,
3.43,
3.43,
3.43,
3.43,
3.43,
3.43,
3.43,
3.43,
3.43,
3.43,
3.43,
3.43,
3.43,
3.43,
3.43,
3.44,
3.44,
3.44,
3.44,
3.44,
3.44,
3.44,
3.44,
3.44,
3.44,
3.44,
3.44,
3.44,
3.44,
3.44,
3.44,
3.44,
3.44,
3.44,
3.44,
3.44,
3.44,
3.44,
3.44,
3.44,
3.44,
3.44,
3.44,
3.44,
3.44,
3.44,
3.44,
3.44,
3.44,
3.44,
3.44,
3.44,
3.44,
3.44,
3.44,
3.44,
3.44,
3.44,
3.44,
3.44,
3.44,
3.43,
3.43,
3.43,
3.43,
3.43,
3.43,
3.43,
3.43,
3.43,
3.43,
3.43,
3.43,
3.43,
3.43,
3.43,
3.43,
3.43,
3.43,
3.43,
3.43,
3.42,
3.42,
3.42,
3.42,
3.42,
3.42,
3.42,
3.42,
3.42,
3.42,
3.42,
3.42,
3.42,
3.41,
3.41,
3.41,
3.41,
3.41,
3.41,
3.41,
3.41,
3.41,
3.41,
3.4,
3.4,
3.4,
3.4,
6.32,
6.32,
6.32,
6.32,
6.32,
6.32,
6.32,
6.32,
6.32,
6.32,
6.32,
6.32,
6.32,
6.32,
6.31,
6.31,
6.31,
6.31,
6.31,
6.31,
6.31,
6.31,
6.31,
6.31,
6.31,
6.31,
6.31,
6.31,
6.3,
6.3,
6.3,
6.3,
6.3,
6.3,
6.3,
6.3,
6.3,
6.3,
6.3,
6.3,
6.3,
6.29,
6.29,
6.29,
6.29,
6.29,
6.29,
6.29,
6.29,
6.29,
6.29,
6.29,
6.29,
6.28,
6.28,
6.28,
6.28,
6.28,
6.28,
6.28,
6.28,
6.28,
6.28,
6.28,
6.28,
6.27,
6.27,
6.27,
6.27,
6.27,
6.27,
6.27,
6.27,
6.27,
6.27,
6.27,
6.26,
6.26,
6.26,
6.26,
6.26,
6.26,
6.26,
6.26,
6.26,
6.26,
6.26,
6.25,
6.25,
6.25,
6.25,
6.25,
6.25,
6.25,
6.25,
6.25,
6.25,
6.25,
6.24,
6.24,
6.24,
6.24,
6.24,
6.24,
6.24,
6.24,
6.24,
6.24,
6.23,
6.23,
6.23,
6.23,
6.23,
6.23,
6.23,
6.23,
6.23,
6.23,
6.22,
6.22,
6.22,
6.22,
6.22,
6.22,
6.22,
6.22,
6.22,
6.22,
6.21,
6.21,
6.21,
6.21,
6.21,
6.21,
6.21,
6.21,
6.21,
6.2,
6.2,
6.2,
6.2,
6.2,
6.2,
6.2,
6.2,
6.2,
6.19,
6.19,
6.19,
6.19,
6.19,
6.19,
6.19,
6.19,
6.19,
6.18,
6.18,
6.18,
6.18,
6.18,
6.18,
6.18,
6.18,
6.18,
6.17,
6.17,
6.17,
6.17,
6.17,
6.17,
6.17,
6.17,
6.16,
6.16,
6.16,
6.16,
6.16,
6.16,
6.16,
6.16,
6.15,
6.15,
6.15,
6.15,
6.15,
6.15,
6.15,
6.15,
6.15,
6.14,
6.14,
6.14,
6.14,
6.14,
6.14,
6.14,
6.14,
6.13,
6.13,
6.13,
6.13,
6.13,
6.13,
6.13,
6.12,
6.12,
6.12,
6.12,
6.12,
6.12,
6.12,
6.12,
6.11,
6.11,
6.11,
6.11,
6.11,
6.11,
6.11,
6.11,
6.1,
6.1,
6.1,
6.1,
6.1,
6.1,
6.1,
6.09,
6.09,
6.09,
6.09,
6.09,
6.09,
6.09,
6.09,
6.08,
6.08,
6.08,
6.08,
6.08,
6.08,
6.08,
6.07,
6.07,
6.07,
6.07
}
calibration type = radiometric
fore objective = OLE
